% FILE: hw_11_18_19.1
%
%       t            theta
%   (second)       (degrees)

  0.000000E+00   0.000000E+00 
  5.000000E-02  -5.568702E-01 
  1.000000E-01  -3.866146E+00 
  1.500000E-01  -1.081610E+01 
  2.000000E-01  -2.096053E+01 
  2.500000E-01  -3.357147E+01 
  3.000000E-01  -4.804804E+01 
  3.500000E-01  -6.393855E+01 
  4.000000E-01  -8.086498E+01 
  4.500000E-01  -9.845414E+01 
  5.000000E-01  -1.163061E+02 
  5.500000E-01  -1.340028E+02 
  6.000000E-01  -1.511374E+02 
  6.500000E-01  -1.673312E+02 
  7.000000E-01  -1.822127E+02 
  7.500000E-01  -1.953572E+02 
  8.000000E-01  -2.062074E+02 
  8.500000E-01  -2.140520E+02 
  9.000000E-01  -2.182948E+02 
  9.500000E-01  -2.193628E+02 
  1.000000E+00  -2.196052E+02 
  1.050000E+00  -2.220353E+02 
  1.100000E+00  -2.280547E+02 
  1.150000E+00  -2.374428E+02 
  1.200000E+00  -2.494800E+02 
  1.250000E+00  -2.635219E+02 
  1.300000E+00  -2.790842E+02 
  1.350000E+00  -2.957775E+02 
  1.400000E+00  -3.132323E+02 
  1.450000E+00  -3.310560E+02 
  1.500000E+00  -3.488329E+02 
  1.550000E+00  -3.661504E+02 
  1.600000E+00  -3.826229E+02 
  1.650000E+00  -3.978813E+02 
  1.700000E+00  -4.115223E+02 
  1.750000E+00  -4.230295E+02 
  1.800000E+00  -4.317239E+02 
  1.850000E+00  -4.369218E+02 
  1.900000E+00  -4.386656E+02 
  1.950000E+00  -4.388112E+02 
  2.000000E+00  -4.404542E+02 
  2.050000E+00  -4.455212E+02 
  2.100000E+00  -4.541020E+02 
  2.150000E+00  -4.655221E+02 
  2.200000E+00  -4.790972E+02 
  2.250000E+00  -4.943056E+02 
  2.300000E+00  -5.107413E+02 
  2.350000E+00  -5.280353E+02 
  2.400000E+00  -5.458028E+02 
  2.450000E+00  -5.636321E+02 
  2.500000E+00  -5.811068E+02 
  2.550000E+00  -5.978335E+02 
  2.600000E+00  -6.134422E+02 
  2.650000E+00  -6.275454E+02 
  2.700000E+00  -6.396637E+02 
  2.750000E+00  -6.491584E+02 
  2.800000E+00  -6.553069E+02 
  2.850000E+00  -6.578529E+02 
  2.900000E+00  -6.581259E+02 
  2.950000E+00  -6.591135E+02 
  3.000000E+00  -6.632266E+02 
  3.050000E+00  -6.709512E+02 
  3.100000E+00  -6.817077E+02 
  3.150000E+00  -6.947813E+02 
  3.200000E+00  -7.096090E+02 
  3.250000E+00  -7.257627E+02 
  3.300000E+00  -7.428703E+02 
  3.350000E+00  -7.605538E+02 
  3.400000E+00  -7.784074E+02 
  3.450000E+00  -7.960128E+02 
  3.500000E+00  -8.129692E+02 
  3.550000E+00  -8.289027E+02 
  3.600000E+00  -8.434365E+02 
  3.650000E+00  -8.561228E+02 
  3.700000E+00  -8.663669E+02 
  3.750000E+00  -8.734418E+02 
  3.800000E+00  -8.768766E+02 
  3.850000E+00  -8.774926E+02 
  3.900000E+00  -8.779944E+02 
  3.950000E+00  -8.811793E+02 
  4.000000E+00  -8.880037E+02 
