% FILE: hw_11_18_19.2
%
%       t             phi
%   (second)       (degrees)

  0.000000E+00   2.000000E+01 
  5.000000E-02   2.093704E+01 
  1.000000E-01   2.351056E+01 
  1.500000E-01   2.720857E+01 
  2.000000E-01   3.152448E+01 
  2.500000E-01   3.603156E+01 
  3.000000E-01   4.034682E+01 
  3.500000E-01   4.409741E+01 
  4.000000E-01   4.692464E+01 
  4.500000E-01   4.852568E+01 
  5.000000E-01   4.871396E+01 
  5.500000E-01   4.746676E+01 
  6.000000E-01   4.493150E+01 
  6.500000E-01   4.138681E+01 
  7.000000E-01   3.718212E+01 
  7.500000E-01   3.268871E+01 
  8.000000E-01   2.828499E+01 
  8.500000E-01   2.438180E+01 
  9.000000E-01   2.146493E+01 
  9.500000E-01   2.006429E+01 
  1.000000E+00   2.052037E+01 
  1.050000E+00   2.271453E+01 
  1.100000E+00   2.617317E+01 
  1.150000E+00   3.037295E+01 
  1.200000E+00   3.486819E+01 
  1.250000E+00   3.926900E+01 
  1.300000E+00   4.320119E+01 
  1.350000E+00   4.629974E+01 
  1.400000E+00   4.824181E+01 
  1.450000E+00   4.880506E+01 
  1.500000E+00   4.792179E+01 
  1.550000E+00   4.569750E+01 
  1.600000E+00   4.238239E+01 
  1.650000E+00   3.831325E+01 
  1.700000E+00   3.385871E+01 
  1.750000E+00   2.939446E+01 
  1.800000E+00   2.531871E+01 
  1.850000E+00   2.209529E+01 
  1.900000E+00   2.025574E+01 
  1.950000E+00   2.022214E+01 
  2.000000E+00   2.200328E+01 
  2.050000E+00   2.518690E+01 
  2.100000E+00   2.924088E+01 
  2.150000E+00   3.369840E+01 
  2.200000E+00   3.815973E+01 
  2.250000E+00   4.224889E+01 
  2.300000E+00   4.559680E+01 
  2.350000E+00   4.786472E+01 
  2.400000E+00   4.879832E+01 
  2.450000E+00   4.828621E+01 
  2.500000E+00   4.638999E+01 
  2.550000E+00   4.332734E+01 
  2.600000E+00   3.941858E+01 
  2.650000E+00   3.502802E+01 
  2.700000E+00   3.052965E+01 
  2.750000E+00   2.631227E+01 
  2.800000E+00   2.281879E+01 
  2.850000E+00   2.057063E+01 
  2.900000E+00   2.004799E+01 
  2.950000E+00   2.138645E+01 
  3.000000E+00   2.425845E+01 
  3.050000E+00   2.813546E+01 
  3.100000E+00   3.252875E+01 
  3.150000E+00   3.702550E+01 
  3.200000E+00   4.124677E+01 
  3.250000E+00   4.482106E+01 
  3.300000E+00   4.739745E+01 
  3.350000E+00   4.869377E+01 
  3.400000E+00   4.855705E+01 
  3.450000E+00   4.700380E+01 
  3.500000E+00   4.421540E+01 
  3.550000E+00   4.049163E+01 
  3.600000E+00   3.619007E+01 
  3.650000E+00   3.168341E+01 
  3.700000E+00   2.735385E+01 
  3.750000E+00   2.362578E+01 
  3.800000E+00   2.100310E+01 
  3.850000E+00   2.000137E+01 
  3.900000E+00   2.087336E+01 
  3.950000E+00   2.339697E+01 
  4.000000E+00   2.706422E+01 
